## Photon energy spectrum 
## VARIAN Medical Accelerator 
## https://primoproject.net/primo/EnergySpectra 
## 10 cm x 10 cm at an SSD of 100 cm 
##   10MV-FFF   ## Flattening-Filter-Free 
# E(MeV)   I(a.u.) 
0.000e+00 7.367e-07
5.000e-02 1.151e-04
1.000e-01 6.109e-05
1.500e-01 6.017e-04
2.000e-01 2.767e-03
2.500e-01 5.336e-03
3.000e-01 6.954e-03
3.500e-01 7.678e-03
4.000e-01 7.845e-03
4.500e-01 7.730e-03
5.000e-01 7.881e-03
5.500e-01 7.138e-03
6.000e-01 6.816e-03
6.500e-01 6.495e-03
7.000e-01 6.193e-03
7.500e-01 5.909e-03
8.000e-01 5.611e-03
8.500e-01 5.368e-03
9.000e-01 5.135e-03
9.500e-01 4.910e-03
1.000e+00 4.705e-03
1.050e+00 4.508e-03
1.100e+00 4.328e-03
1.150e+00 4.167e-03
1.200e+00 3.997e-03
1.250e+00 3.852e-03
1.300e+00 3.717e-03
1.350e+00 3.574e-03
1.400e+00 3.444e-03
1.450e+00 3.324e-03
1.500e+00 3.203e-03
1.550e+00 3.097e-03
1.600e+00 2.999e-03
1.650e+00 2.901e-03
1.700e+00 2.800e-03
1.750e+00 2.711e-03
1.800e+00 2.624e-03
1.850e+00 2.546e-03
1.900e+00 2.467e-03
1.950e+00 2.386e-03
2.000e+00 2.326e-03
2.050e+00 2.249e-03
2.100e+00 2.185e-03
2.150e+00 2.124e-03
2.200e+00 2.069e-03
2.250e+00 2.010e-03
2.300e+00 1.954e-03
2.350e+00 1.903e-03
2.400e+00 1.847e-03
2.450e+00 1.799e-03
2.500e+00 1.758e-03
2.550e+00 1.703e-03
2.600e+00 1.668e-03
2.650e+00 1.615e-03
2.700e+00 1.580e-03
2.750e+00 1.541e-03
2.800e+00 1.499e-03
2.850e+00 1.467e-03
2.900e+00 1.429e-03
2.950e+00 1.394e-03
3.000e+00 1.367e-03
3.050e+00 1.334e-03
3.100e+00 1.298e-03
3.150e+00 1.271e-03
3.200e+00 1.244e-03
3.250e+00 1.214e-03
3.300e+00 1.189e-03
3.350e+00 1.161e-03
3.400e+00 1.137e-03
3.450e+00 1.110e-03
3.500e+00 1.083e-03
3.550e+00 1.067e-03
3.600e+00 1.036e-03
3.650e+00 1.018e-03
3.700e+00 9.990e-04
3.750e+00 9.792e-04
3.800e+00 9.593e-04
3.850e+00 9.361e-04
3.900e+00 9.196e-04
3.950e+00 9.035e-04
4.000e+00 8.829e-04
4.050e+00 8.653e-04
4.100e+00 8.479e-04
4.150e+00 8.314e-04
4.200e+00 8.142e-04
4.250e+00 8.001e-04
4.300e+00 7.866e-04
4.350e+00 7.694e-04
4.400e+00 7.546e-04
4.450e+00 7.423e-04
4.500e+00 7.253e-04
4.550e+00 7.120e-04
4.600e+00 6.995e-04
4.650e+00 6.889e-04
4.700e+00 6.808e-04
4.750e+00 6.655e-04
4.800e+00 6.547e-04
4.850e+00 6.428e-04
4.900e+00 6.295e-04
4.950e+00 6.201e-04
5.000e+00 6.077e-04
5.050e+00 5.934e-04
5.100e+00 5.886e-04
5.150e+00 5.751e-04
5.200e+00 5.658e-04
5.250e+00 5.564e-04
5.300e+00 5.461e-04
5.350e+00 5.375e-04
5.400e+00 5.309e-04
5.450e+00 5.189e-04
5.500e+00 5.120e-04
5.550e+00 5.006e-04
5.600e+00 4.964e-04
5.650e+00 4.884e-04
5.700e+00 4.770e-04
5.750e+00 4.696e-04
5.800e+00 4.635e-04
5.850e+00 4.582e-04
5.900e+00 4.489e-04
5.950e+00 4.393e-04
6.000e+00 4.346e-04
6.050e+00 4.274e-04
6.100e+00 4.202e-04
6.150e+00 4.135e-04
6.200e+00 4.062e-04
6.250e+00 4.005e-04
6.300e+00 3.938e-04
6.350e+00 3.846e-04
6.400e+00 3.825e-04
6.450e+00 3.737e-04
6.500e+00 3.677e-04
6.550e+00 3.604e-04
6.600e+00 3.576e-04
6.650e+00 3.507e-04
6.700e+00 3.460e-04
6.750e+00 3.410e-04
6.800e+00 3.361e-04
6.850e+00 3.291e-04
6.900e+00 3.236e-04
6.950e+00 3.200e-04
7.000e+00 3.135e-04
7.050e+00 3.084e-04
7.100e+00 3.022e-04
7.150e+00 2.989e-04
7.200e+00 2.947e-04
7.250e+00 2.884e-04
7.300e+00 2.849e-04
7.350e+00 2.804e-04
7.400e+00 2.762e-04
7.450e+00 2.692e-04
7.500e+00 2.652e-04
7.550e+00 2.615e-04
7.600e+00 2.564e-04
7.650e+00 2.524e-04
7.700e+00 2.497e-04
7.750e+00 2.453e-04
7.800e+00 2.398e-04
7.850e+00 2.354e-04
7.900e+00 2.309e-04
7.950e+00 2.286e-04
8.000e+00 2.245e-04
8.050e+00 2.204e-04
8.100e+00 2.154e-04
8.150e+00 2.130e-04
8.200e+00 2.099e-04
8.250e+00 2.037e-04
8.300e+00 2.003e-04
8.350e+00 1.976e-04
8.400e+00 1.952e-04
8.450e+00 1.888e-04
8.500e+00 1.876e-04
8.550e+00 1.816e-04
8.600e+00 1.766e-04
8.650e+00 1.774e-04
8.700e+00 1.726e-04
8.750e+00 1.684e-04
8.800e+00 1.638e-04
8.850e+00 1.613e-04
8.900e+00 1.557e-04
8.950e+00 1.515e-04
9.000e+00 1.494e-04
9.050e+00 1.451e-04
9.100e+00 1.426e-04
9.150e+00 1.374e-04
9.200e+00 1.339e-04
9.250e+00 1.300e-04
9.300e+00 1.261e-04
9.350e+00 1.227e-04
9.400e+00 1.194e-04
9.450e+00 1.160e-04
9.500e+00 1.107e-04
9.550e+00 1.077e-04
9.600e+00 1.038e-04
9.650e+00 9.974e-05
9.700e+00 9.676e-05
9.750e+00 9.132e-05
9.800e+00 8.859e-05
9.850e+00 8.503e-05
9.900e+00 8.116e-05
9.950e+00 7.792e-05
1.000e+01 7.306e-05
1.005e+01 6.999e-05
1.010e+01 6.559e-05
1.015e+01 6.182e-05
1.020e+01 5.750e-05
1.025e+01 5.370e-05
1.030e+01 4.949e-05
1.035e+01 4.431e-05
1.040e+01 4.038e-05
1.045e+01 3.659e-05
1.050e+01 3.175e-05
1.055e+01 2.752e-05
1.060e+01 2.340e-05
1.065e+01 1.903e-05
1.070e+01 1.342e-05
1.075e+01 8.542e-06
1.080e+01 1.468e-06
